;PC Software:StarLab Version 3.80 Build 2
! ******* Warning: Do not modify this file. Changes may prevent   ********
! ******* the StarLab Log reader from opening the file correctly. ********
;Logged:22/11/2022 at 18:02:17
;File Version:5
;Time Resolution:1 microseconds
;Log Settings:Stop after:period: 00:05:00
;Graph Mode:Merge
;Graph Type:Line
;Notes:                                                            

;Channel A:Vega Thermopile 3A (s/n:947746)  VG2.54 (s/n:858327)

;Channel A:Details
;Name:3A
;Graph Color:RGB(14,104,168)
;Units:W
;Settings:Measuring:Power
;Settings:Wavelength:532
;Settings:Range:AUTO

;Channel A:Statistics
;Min:38.20mW             
;Max:122.2mW             
;Average:96.68mW             
;Std.Dev.:15.45mW             
;Overrange:0                   
;--------------------


;First Pulse Arrived : 22/11/2022 at 18:02:17
  Timestamp   	  Channel A  	
         0.000	  1.029e-01 	
         0.064	  1.029e-01 	
         0.127	  1.028e-01 	
         0.192	  1.028e-01 	
         0.256	  1.027e-01 	
         0.351	  1.027e-01 	
         0.414	  1.027e-01 	
         0.479	  1.027e-01 	
         0.543	  1.027e-01 	
         0.608	  1.027e-01 	
         0.671	  1.027e-01 	
         0.735	  1.028e-01 	
         0.798	  1.028e-01 	
         0.862	  1.028e-01 	
         0.927	  1.028e-01 	
         0.991	  1.028e-01 	
         1.056	  1.029e-01 	
         1.150	  1.029e-01 	
         1.215	  1.029e-01 	
         1.280	  1.029e-01 	
         1.343	  1.029e-01 	
         1.406	  1.029e-01 	
         1.472	  1.029e-01 	
         1.535	  1.029e-01 	
         1.598	  1.029e-01 	
         1.663	  1.029e-01 	
         1.727	  1.029e-01 	
         1.791	  1.029e-01 	
         1.856	  1.029e-01 	
         1.951	  1.030e-01 	
         2.015	  1.030e-01 	
         2.078	  1.030e-01 	
         2.143	  1.030e-01 	
         2.207	  1.031e-01 	
         2.271	  1.031e-01 	
         2.335	  1.031e-01 	
         2.400	  1.031e-01 	
         2.464	  1.030e-01 	
         2.527	  1.030e-01 	
         2.592	  1.030e-01 	
         2.654	  1.031e-01 	
         2.750	  1.031e-01 	
         2.816	  1.031e-01 	
         2.880	  1.031e-01 	
         2.943	  1.032e-01 	
         3.007	  1.032e-01 	
         3.071	  1.032e-01 	
         3.135	  1.033e-01 	
         3.200	  1.033e-01 	
         3.264	  1.033e-01 	
         3.327	  1.033e-01 	
         3.392	  1.033e-01 	
         3.456	  1.033e-01 	
         3.551	  1.033e-01 	
         3.614	  1.033e-01 	
         3.679	  1.033e-01 	
         3.743	  1.033e-01 	
         3.808	  1.033e-01 	
         3.872	  1.033e-01 	
         3.934	  1.033e-01 	
         3.998	  1.033e-01 	
         4.063	  1.033e-01 	
         4.128	  1.032e-01 	
         4.190	  1.032e-01 	
         4.255	  1.032e-01 	
         4.351	  1.032e-01 	
         4.415	  1.032e-01 	
         4.479	  1.033e-01 	
         4.543	  1.033e-01 	
         4.607	  1.033e-01 	
         4.671	  1.033e-01 	
         4.735	  1.033e-01 	
         4.800	  1.033e-01 	
         4.863	  1.033e-01 	
         4.928	  1.033e-01 	
         4.991	  1.032e-01 	
         5.055	  1.031e-01 	
         5.151	  1.031e-01 	
         5.215	  1.030e-01 	
         5.278	  1.030e-01 	
         5.343	  1.030e-01 	
         5.407	  1.029e-01 	
         5.472	  1.029e-01 	
         5.535	  1.029e-01 	
         5.600	  1.029e-01 	
         5.664	  1.030e-01 	
         5.728	  1.030e-01 	
         5.792	  1.031e-01 	
         5.855	  1.031e-01 	
         5.951	  1.031e-01 	
         6.015	  1.032e-01 	
         6.079	  1.032e-01 	
         6.144	  1.033e-01 	
         6.206	  1.033e-01 	
         6.272	  1.033e-01 	
         6.335	  1.033e-01 	
         6.399	  1.033e-01 	
         6.463	  1.033e-01 	
         6.526	  1.032e-01 	
         6.592	  1.032e-01 	
         6.654	  1.031e-01 	
         6.751	  1.031e-01 	
         6.815	  1.031e-01 	
         6.880	  1.031e-01 	
         6.944	  1.031e-01 	
         7.008	  1.031e-01 	
         7.071	  1.032e-01 	
         7.136	  1.032e-01 	
         7.200	  1.032e-01 	
         7.263	  1.032e-01 	
         7.328	  1.033e-01 	
         7.391	  1.033e-01 	
         7.455	  1.034e-01 	
         7.551	  1.034e-01 	
         7.615	  1.034e-01 	
         7.680	  1.034e-01 	
         7.743	  1.034e-01 	
         7.806	  1.034e-01 	
         7.871	  1.034e-01 	
         7.934	  1.033e-01 	
         7.999	  1.033e-01 	
         8.063	  1.033e-01 	
         8.128	  1.032e-01 	
         8.191	  1.031e-01 	
         8.255	  1.031e-01 	
         8.350	  1.031e-01 	
         8.416	  1.032e-01 	
         8.479	  1.032e-01 	
         8.544	  1.033e-01 	
         8.607	  1.033e-01 	
         8.671	  1.034e-01 	
         8.735	  1.034e-01 	
         8.799	  1.034e-01 	
         8.863	  1.034e-01 	
         8.928	  1.034e-01 	
         8.992	  1.034e-01 	
         9.055	  1.035e-01 	
         9.119	  1.035e-01 	
         9.215	  1.035e-01 	
         9.279	  1.035e-01 	
         9.344	  1.035e-01 	
         9.408	  1.035e-01 	
         9.471	  1.035e-01 	
         9.535	  1.035e-01 	
         9.599	  1.035e-01 	
         9.664	  1.035e-01 	
         9.727	  1.035e-01 	
         9.792	  1.035e-01 	
         9.856	  1.035e-01 	
         9.951	  1.035e-01 	
        10.016	  1.035e-01 	
        10.080	  1.035e-01 	
        10.143	  1.035e-01 	
        10.208	  1.035e-01 	
        10.271	  1.035e-01 	
        10.334	  1.035e-01 	
        10.399	  1.036e-01 	
        10.463	  1.036e-01 	
        10.527	  1.036e-01 	
        10.591	  1.036e-01 	
        10.656	  1.036e-01 	
        10.720	  1.037e-01 	
        10.815	  1.037e-01 	
        10.879	  1.037e-01 	
        10.944	  1.037e-01 	
        11.008	  1.038e-01 	
        11.072	  1.038e-01 	
        11.134	  1.038e-01 	
        11.199	  1.038e-01 	
        11.264	  1.038e-01 	
        11.327	  1.038e-01 	
        11.390	  1.038e-01 	
        11.456	  1.038e-01 	
        11.518	  1.038e-01 	
        11.615	  1.038e-01 	
        11.680	  1.038e-01 	
        11.744	  1.039e-01 	
        11.808	  1.039e-01 	
        11.872	  1.039e-01 	
        11.934	  1.039e-01 	
        11.999	  1.040e-01 	
        12.063	  1.040e-01 	
        12.128	  1.040e-01 	
        12.192	  1.040e-01 	
        12.255	  1.040e-01 	
        12.320	  1.040e-01 	
        12.415	  1.040e-01 	
        12.480	  1.041e-01 	
        12.543	  1.041e-01 	
        12.608	  1.041e-01 	
        12.671	  1.041e-01 	
        12.735	  1.042e-01 	
        12.799	  1.042e-01 	
        12.864	  1.042e-01 	
        12.927	  1.042e-01 	
        12.991	  1.042e-01 	
        13.055	  1.042e-01 	
        13.119	  1.042e-01 	
        13.215	  1.042e-01 	
        13.279	  1.042e-01 	
        13.344	  1.043e-01 	
        13.408	  1.043e-01 	
        13.470	  1.044e-01 	
        13.535	  1.044e-01 	
        13.599	  1.045e-01 	
        13.664	  1.045e-01 	
        13.728	  1.046e-01 	
        13.792	  1.046e-01 	
        13.856	  1.047e-01 	
        13.919	  1.047e-01 	
        14.015	  1.048e-01 	
        14.080	  1.048e-01 	
        14.143	  1.049e-01 	
        14.208	  1.049e-01 	
        14.271	  1.049e-01 	
        14.336	  1.049e-01 	
        14.398	  1.049e-01 	
        14.464	  1.049e-01 	
        14.528	  1.048e-01 	
        14.591	  1.048e-01 	
        14.656	  1.048e-01 	
        14.719	  1.048e-01 	
        14.814	  1.047e-01 	
        14.879	  1.047e-01 	
        14.944	  1.047e-01 	
        15.007	  1.048e-01 	
        15.071	  1.048e-01 	
        15.135	  1.048e-01 	
        15.198	  1.048e-01 	
        15.264	  1.048e-01 	
        15.328	  1.049e-01 	
        15.390	  1.049e-01 	
        15.454	  1.050e-01 	
        15.520	  1.050e-01 	
        15.615	  1.050e-01 	
        15.679	  1.051e-01 	
        15.743	  1.051e-01 	
        15.807	  1.051e-01 	
        15.871	  1.052e-01 	
        15.936	  1.052e-01 	
        15.999	  1.053e-01 	
        16.064	  1.053e-01 	
        16.128	  1.054e-01 	
        16.192	  1.054e-01 	
        16.255	  1.054e-01 	
        16.319	  1.055e-01 	
        16.415	  1.055e-01 	
        16.479	  1.055e-01 	
        16.544	  1.056e-01 	
        16.608	  1.057e-01 	
        16.671	  1.057e-01 	
        16.735	  1.058e-01 	
        16.799	  1.058e-01 	
        16.864	  1.058e-01 	
        16.928	  1.059e-01 	
        16.991	  1.060e-01 	
        17.056	  1.060e-01 	
        17.119	  1.061e-01 	
        17.215	  1.062e-01 	
        17.280	  1.063e-01 	
        17.343	  1.064e-01 	
        17.408	  1.065e-01 	
        17.472	  1.066e-01 	
        17.535	  1.067e-01 	
        17.598	  1.068e-01 	
        17.663	  1.070e-01 	
        17.728	  1.071e-01 	
        17.791	  1.073e-01 	
        17.856	  1.074e-01 	
        17.919	  1.076e-01 	
        18.014	  1.077e-01 	
        18.080	  1.079e-01 	
        18.143	  1.081e-01 	
        18.207	  1.083e-01 	
        18.271	  1.085e-01 	
        18.335	  1.087e-01 	
        18.399	  1.089e-01 	
        18.464	  1.091e-01 	
        18.528	  1.094e-01 	
        18.592	  1.097e-01 	
        18.654	  1.100e-01 	
        18.719	  1.103e-01 	
        18.814	  1.106e-01 	
        18.880	  1.110e-01 	
        18.944	  1.114e-01 	
        19.008	  1.118e-01 	
        19.072	  1.122e-01 	
        19.136	  1.126e-01 	
        19.199	  1.131e-01 	
        19.263	  1.136e-01 	
        19.327	  1.141e-01 	
        19.391	  1.146e-01 	
        19.455	  1.151e-01 	
        19.518	  1.157e-01 	
        19.615	  1.162e-01 	
        19.680	  1.168e-01 	
        19.743	  1.174e-01 	
        19.808	  1.180e-01 	
        19.872	  1.187e-01 	
        19.935	  1.193e-01 	
        19.999	  1.200e-01 	
        20.064	  1.206e-01 	
        20.128	  1.212e-01 	
        20.191	  1.216e-01 	
        20.255	  1.219e-01 	
        20.320	  1.221e-01 	
        20.414	  1.222e-01 	
        20.479	  1.221e-01 	
        20.543	  1.217e-01 	
        20.607	  1.211e-01 	
        20.672	  1.202e-01 	
        20.735	  1.188e-01 	
        20.799	  1.171e-01 	
        20.864	  1.150e-01 	
        20.928	  1.124e-01 	
        20.992	  1.093e-01 	
        21.055	  1.058e-01 	
        21.119	  1.019e-01 	
        21.214	  9.750e-02 	
        21.279	  9.300e-02 	
        21.343	  8.820e-02 	
        21.407	  8.330e-02 	
        21.471	  7.840e-02 	
        21.535	  7.350e-02 	
        21.599	  6.890e-02 	
        21.664	  6.450e-02 	
        21.726	  6.050e-02 	
        21.792	  5.690e-02 	
        21.855	  5.370e-02 	
        21.919	  5.100e-02 	
        22.015	  4.880e-02 	
        22.080	  4.720e-02 	
        22.143	  4.600e-02 	
        22.207	  4.490e-02 	
        22.270	  4.390e-02 	
        22.336	  4.280e-02 	
        22.398	  4.170e-02 	
        22.463	  4.060e-02 	
        22.528	  3.970e-02 	
        22.591	  3.900e-02 	
        22.655	  3.850e-02 	
        22.720	  3.820e-02 	
        22.783	  3.820e-02 	
        22.880	  3.840e-02 	
        22.944	  3.880e-02 	
        23.008	  3.940e-02 	
        23.072	  4.020e-02 	
        23.136	  4.120e-02 	
        23.199	  4.230e-02 	
        23.263	  4.360e-02 	
        23.327	  4.500e-02 	
        23.392	  4.640e-02 	
        23.454	  4.780e-02 	
        23.519	  4.920e-02 	
        23.583	  5.040e-02 	
        23.679	  5.110e-02 	
        23.744	  5.160e-02 	
        23.807	  5.170e-02 	
        23.872	  5.150e-02 	
        23.935	  5.120e-02 	
        23.999	  5.100e-02 	
        24.063	  5.090e-02 	
        24.126	  5.090e-02 	
        24.192	  5.100e-02 	
        24.254	  5.130e-02 	
        24.320	  5.180e-02 	
        24.383	  5.240e-02 	
        24.479	  5.310e-02 	
        24.543	  5.400e-02 	
        24.608	  5.500e-02 	
        24.671	  5.610e-02 	
        24.735	  5.720e-02 	
        24.798	  5.850e-02 	
        24.864	  5.990e-02 	
        24.928	  6.140e-02 	
        24.992	  6.300e-02 	
        25.056	  6.480e-02 	
        25.119	  6.670e-02 	
        25.182	  6.860e-02 	
        25.279	  7.060e-02 	
        25.342	  7.240e-02 	
        25.406	  7.420e-02 	
        25.472	  7.590e-02 	
        25.536	  7.760e-02 	
        25.598	  7.910e-02 	
        25.662	  8.050e-02 	
        25.727	  8.180e-02 	
        25.791	  8.290e-02 	
        25.856	  8.400e-02 	
        25.920	  8.500e-02 	
        25.983	  8.590e-02 	
        26.080	  8.660e-02 	
        26.144	  8.730e-02 	
        26.207	  8.800e-02 	
        26.272	  8.850e-02 	
        26.334	  8.900e-02 	
        26.399	  8.940e-02 	
        26.463	  8.980e-02 	
        26.528	  9.020e-02 	
        26.592	  9.050e-02 	
        26.656	  9.070e-02 	
        26.720	  9.100e-02 	
        26.783	  9.130e-02 	
        26.879	  9.150e-02 	
        26.944	  9.170e-02 	
        27.007	  9.190e-02 	
        27.072	  9.210e-02 	
        27.135	  9.240e-02 	
        27.199	  9.260e-02 	
        27.264	  9.280e-02 	
        27.327	  9.300e-02 	
        27.391	  9.310e-02 	
        27.455	  9.330e-02 	
        27.519	  9.340e-02 	
        27.583	  9.360e-02 	
        27.680	  9.370e-02 	
        27.744	  9.380e-02 	
        27.808	  9.380e-02 	
        27.871	  9.390e-02 	
        27.936	  9.400e-02 	
        28.000	  9.410e-02 	
        28.063	  9.420e-02 	
        28.127	  9.430e-02 	
        28.191	  9.440e-02 	
        28.256	  9.450e-02 	
        28.318	  9.460e-02 	
        28.383	  9.460e-02 	
        28.479	  9.470e-02 	
        28.542	  9.480e-02 	
        28.608	  9.490e-02 	
        28.671	  9.500e-02 	
        28.735	  9.510e-02 	
        28.799	  9.520e-02 	
        28.863	  9.530e-02 	
        28.928	  9.540e-02 	
        28.991	  9.550e-02 	
        29.056	  9.560e-02 	
        29.120	  9.560e-02 	
        29.182	  9.570e-02 	
        29.280	  9.570e-02 	
        29.344	  9.580e-02 	
        29.408	  9.580e-02 	
        29.472	  9.590e-02 	
        29.534	  9.590e-02 	
        29.598	  9.600e-02 	
        29.663	  9.600e-02 	
        29.727	  9.610e-02 	
        29.792	  9.610e-02 	
        29.855	  9.610e-02 	
        29.919	  9.620e-02 	
        29.984	  9.620e-02 	
        30.078	  9.620e-02 	
        30.144	  9.630e-02 	
        30.206	  9.630e-02 	
        30.271	  9.630e-02 	
        30.335	  9.630e-02 	
        30.399	  9.640e-02 	
        30.463	  9.640e-02 	
        30.528	  9.640e-02 	
        30.592	  9.640e-02 	
        30.655	  9.640e-02 	
        30.720	  9.640e-02 	
        30.783	  9.650e-02 	
        30.880	  9.650e-02 	
        30.943	  9.650e-02 	
        31.008	  9.650e-02 	
        31.071	  9.650e-02 	
        31.134	  9.650e-02 	
        31.200	  9.660e-02 	
        31.263	  9.660e-02 	
        31.327	  9.660e-02 	
        31.390	  9.670e-02 	
        31.455	  9.670e-02 	
        31.519	  9.670e-02 	
        31.583	  9.670e-02 	
        31.679	  9.670e-02 	
        31.744	  9.670e-02 	
        31.807	  9.670e-02 	
        31.872	  9.680e-02 	
        31.935	  9.680e-02 	
        31.998	  9.680e-02 	
        32.063	  9.680e-02 	
        32.128	  9.680e-02 	
        32.192	  9.670e-02 	
        32.256	  9.670e-02 	
        32.320	  9.670e-02 	
        32.383	  9.670e-02 	
        32.479	  9.670e-02 	
        32.542	  9.670e-02 	
        32.607	  9.660e-02 	
        32.671	  9.660e-02 	
        32.734	  9.670e-02 	
        32.799	  9.670e-02 	
        32.863	  9.670e-02 	
        32.928	  9.680e-02 	
        32.992	  9.680e-02 	
        33.056	  9.690e-02 	
        33.120	  9.690e-02 	
        33.183	  9.690e-02 	
        33.279	  9.690e-02 	
        33.344	  9.690e-02 	
        33.408	  9.690e-02 	
        33.472	  9.690e-02 	
        33.536	  9.690e-02 	
        33.599	  9.700e-02 	
        33.662	  9.700e-02 	
        33.727	  9.710e-02 	
        33.792	  9.710e-02 	
        33.855	  9.710e-02 	
        33.919	  9.720e-02 	
        33.984	  9.720e-02 	
        34.079	  9.720e-02 	
        34.144	  9.720e-02 	
        34.208	  9.720e-02 	
        34.270	  9.720e-02 	
        34.335	  9.720e-02 	
        34.399	  9.720e-02 	
        34.463	  9.720e-02 	
        34.527	  9.720e-02 	
        34.591	  9.720e-02 	
        34.655	  9.720e-02 	
        34.719	  9.720e-02 	
        34.783	  9.720e-02 	
        34.879	  9.720e-02 	
        34.943	  9.720e-02 	
        35.008	  9.730e-02 	
        35.071	  9.730e-02 	
        35.135	  9.730e-02 	
        35.199	  9.730e-02 	
        35.262	  9.740e-02 	
        35.328	  9.740e-02 	
        35.391	  9.740e-02 	
        35.456	  9.740e-02 	
        35.518	  9.740e-02 	
        35.583	  9.740e-02 	
        35.647	  9.740e-02 	
        35.743	  9.740e-02 	
        35.806	  9.740e-02 	
        35.871	  9.740e-02 	
        35.935	  9.740e-02 	
        35.999	  9.740e-02 	
        36.063	  9.740e-02 	
        36.127	  9.740e-02 	
        36.192	  9.740e-02 	
        36.255	  9.740e-02 	
        36.319	  9.740e-02 	
        36.383	  9.740e-02 	
        36.447	  9.740e-02 	
        36.543	  9.740e-02 	
        36.608	  9.730e-02 	
        36.670	  9.730e-02 	
        36.735	  9.730e-02 	
        36.798	  9.740e-02 	
        36.863	  9.740e-02 	
        36.928	  9.740e-02 	
        36.992	  9.740e-02 	
        37.056	  9.750e-02 	
        37.119	  9.750e-02 	
        37.184	  9.750e-02 	
        37.247	  9.760e-02 	
        37.344	  9.760e-02 	
        37.408	  9.770e-02 	
        37.471	  9.770e-02 	
        37.535	  9.770e-02 	
        37.599	  9.780e-02 	
        37.663	  9.780e-02 	
        37.728	  9.790e-02 	
        37.790	  9.800e-02 	
        37.856	  9.800e-02 	
        37.920	  9.800e-02 	
        37.983	  9.810e-02 	
        38.046	  9.810e-02 	
        38.143	  9.820e-02 	
        38.208	  9.820e-02 	
        38.272	  9.820e-02 	
        38.335	  9.830e-02 	
        38.398	  9.830e-02 	
        38.462	  9.830e-02 	
        38.528	  9.830e-02 	
        38.592	  9.820e-02 	
        38.654	  9.820e-02 	
        38.720	  9.810e-02 	
        38.783	  9.810e-02 	
        38.847	  9.810e-02 	
        38.944	  9.820e-02 	
        39.006	  9.820e-02 	
        39.072	  9.820e-02 	
        39.135	  9.830e-02 	
        39.198	  9.830e-02 	
        39.263	  9.840e-02 	
        39.326	  9.840e-02 	
        39.392	  9.850e-02 	
        39.455	  9.850e-02 	
        39.519	  9.850e-02 	
        39.583	  9.850e-02 	
        39.646	  9.850e-02 	
        39.744	  9.850e-02 	
        39.808	  9.860e-02 	
        39.870	  9.860e-02 	
        39.936	  9.860e-02 	
        39.998	  9.860e-02 	
        40.063	  9.860e-02 	
        40.127	  9.860e-02 	
        40.192	  9.860e-02 	
        40.256	  9.850e-02 	
        40.319	  9.850e-02 	
        40.383	  9.840e-02 	
        40.446	  9.840e-02 	
        40.543	  9.840e-02 	
        40.608	  9.840e-02 	
        40.672	  9.840e-02 	
        40.736	  9.830e-02 	
        40.800	  9.830e-02 	
        40.863	  9.830e-02 	
        40.927	  9.830e-02 	
        40.990	  9.830e-02 	
        41.056	  9.830e-02 	
        41.119	  9.830e-02 	
        41.183	  9.830e-02 	
        41.247	  9.830e-02 	
        41.343	  9.840e-02 	
        41.406	  9.840e-02 	
        41.471	  9.850e-02 	
        41.535	  9.860e-02 	
        41.599	  9.870e-02 	
        41.663	  9.880e-02 	
        41.727	  9.880e-02 	
        41.791	  9.890e-02 	
        41.855	  9.900e-02 	
        41.920	  9.910e-02 	
        41.983	  9.910e-02 	
        42.047	  9.910e-02 	
        42.144	  9.920e-02 	
        42.208	  9.920e-02 	
        42.272	  9.920e-02 	
        42.336	  9.920e-02 	
        42.399	  9.920e-02 	
        42.462	  9.920e-02 	
        42.526	  9.920e-02 	
        42.592	  9.910e-02 	
        42.655	  9.900e-02 	
        42.720	  9.900e-02 	
        42.783	  9.890e-02 	
        42.847	  9.890e-02 	
        42.944	  9.880e-02 	
        43.007	  9.880e-02 	
        43.071	  9.880e-02 	
        43.136	  9.880e-02 	
        43.200	  9.880e-02 	
        43.262	  9.880e-02 	
        43.328	  9.890e-02 	
        43.392	  9.890e-02 	
        43.456	  9.890e-02 	
        43.518	  9.900e-02 	
        43.584	  9.900e-02 	
        43.647	  9.900e-02 	
        43.743	  9.910e-02 	
        43.807	  9.910e-02 	
        43.871	  9.910e-02 	
        43.935	  9.910e-02 	
        43.999	  9.910e-02 	
        44.062	  9.910e-02 	
        44.127	  9.910e-02 	
        44.192	  9.910e-02 	
        44.256	  9.910e-02 	
        44.320	  9.910e-02 	
        44.383	  9.910e-02 	
        44.447	  9.910e-02 	
        44.544	  9.920e-02 	
